File: examples/example_101/test_RESULTS.dat
   NODE DISPLACEMENTS
----------------------------------------
NODE       DX(M)        DY(M)        DM(M)
1      0.000E+00   0.000E+00   0.000E+00
2      5.000E-09   0.000E+00   5.000E-09
3      1.009E-07   2.000E-08   1.029E-07

  ELEMENT FORCES AND STRESSES
----------------------------------------
EL.       FORCE(N)       STRESS(PA)
1    +1.000000E+03  +1.000000E+03
2    -2.236068E+03  -2.236068E+03
3    +2.000000E+03  +2.000000E+03

  SUPPORT REACTIONS
----------------------------------------
NODE       RX(N)        RY(N)        RM(N)
1     -1.000E+03  -2.000E+03   2.236E+03
2      0.000E+00   2.000E+03   2.000E+03